#Collected Data-16
#Intensity_unit=counts
5.0000 141.0000
5.0200 112.0000
5.0400 124.0000
5.0600 121.0000
5.0800 123.0000
5.1000 123.0000
5.1200 137.0000
5.1400 136.0000
5.1600 126.0000
5.1800 123.0000
5.2000 136.0000
5.2200 140.0000
5.2400 113.0000
5.2600 118.0000
5.2800 130.0000
5.3000 119.0000
5.3200 129.0000
5.3400 120.0000
5.3600 139.0000
5.3800 116.0000
5.4000 139.0000
5.4200 128.0000
5.4400 126.0000
5.4600 124.0000
5.4800 142.0000
5.5000 123.0000
5.5200 106.0000
5.5400 103.0000
5.5600 137.0000
5.5800 131.0000
5.6000 124.0000
5.6200 130.0000
5.6400 126.0000
5.6600 134.0000
5.6800 126.0000
5.7000 116.0000
5.7200 124.0000
5.7400 127.0000
5.7600 138.0000
5.7800 105.0000
5.8000 111.0000
5.8200 130.0000
5.8400 132.0000
5.8600 121.0000
5.8800 138.0000
5.9000 118.0000
5.9200 145.0000
5.9400 122.0000
5.9600 121.0000
5.9800 115.0000
6.0000 141.0000
6.0200 131.0000
6.0400 123.0000
6.0600 117.0000
6.0800 127.0000
6.1000 115.0000
6.1200 137.0000
6.1400 124.0000
6.1600 101.0000
6.1800 109.0000
6.2000 104.0000
6.2200 147.0000
6.2400 136.0000
6.2600 117.0000
6.2800 115.0000
6.3000 113.0000
6.3200 113.0000
6.3400 116.0000
6.3600 118.0000
6.3800 107.0000
6.4000 108.0000
6.4200 106.0000
6.4400 117.0000
6.4600 123.0000
6.4800 99.0000
6.5000 101.0000
6.5200 107.0000
6.5400 114.0000
6.5600 83.0000
6.5800 112.0000
6.6000 97.0000
6.6200 98.0000
6.6400 91.0000
6.6600 96.0000
6.6800 87.0000
6.7000 97.0000
6.7200 112.0000
6.7400 96.0000
6.7600 82.0000
6.7800 91.0000
6.8000 123.0000
6.8200 98.0000
6.8400 94.0000
6.8600 98.0000
6.8800 122.0000
6.9000 107.0000
6.9200 96.0000
6.9400 92.0000
6.9600 104.0000
6.9800 111.0000
7.0000 94.0000
7.0200 74.0000
7.0400 91.0000
7.0600 85.0000
7.0800 100.0000
7.1000 103.0000
7.1200 93.0000
7.1400 90.0000
7.1600 98.0000
7.1800 102.0000
7.2000 87.0000
7.2200 97.0000
7.2400 102.0000
7.2600 85.0000
7.2800 84.0000
7.3000 80.0000
7.3200 87.0000
7.3400 75.0000
7.3600 74.0000
7.3800 84.0000
7.4000 97.0000
7.4200 97.0000
7.4400 111.0000
7.4600 81.0000
7.4800 102.0000
7.5000 99.0000
7.5200 92.0000
7.5400 94.0000
7.5600 93.0000
7.5800 76.0000
7.6000 86.0000
7.6200 84.0000
7.6400 90.0000
7.6600 93.0000
7.6800 82.0000
7.7000 89.0000
7.7200 77.0000
7.7400 79.0000
7.7600 89.0000
7.7800 78.0000
7.8000 89.0000
7.8200 83.0000
7.8400 98.0000
7.8600 99.0000
7.8800 94.0000
7.9000 92.0000
7.9200 71.0000
7.9400 83.0000
7.9600 70.0000
7.9800 69.0000
8.0000 92.0000
8.0200 83.0000
8.0400 80.0000
8.0600 81.0000
8.0800 96.0000
8.1000 85.0000
8.1200 85.0000
8.1400 93.0000
8.1600 113.0000
8.1800 97.0000
8.2000 90.0000
8.2200 83.0000
8.2400 71.0000
8.2600 85.0000
8.2800 79.0000
8.3000 76.0000
8.3200 76.0000
8.3400 81.0000
8.3600 83.0000
8.3800 67.0000
8.4000 84.0000
8.4200 71.0000
8.4400 76.0000
8.4600 85.0000
8.4800 71.0000
8.5000 66.0000
8.5200 71.0000
8.5400 83.0000
8.5600 77.0000
8.5800 80.0000
8.6000 77.0000
8.6200 78.0000
8.6400 92.0000
8.6600 64.0000
8.6800 89.0000
8.7000 75.0000
8.7200 75.0000
8.7400 77.0000
8.7600 62.0000
8.7800 63.0000
8.8000 80.0000
8.8200 70.0000
8.8400 66.0000
8.8600 74.0000
8.8800 62.0000
8.9000 78.0000
8.9200 70.0000
8.9400 86.0000
8.9600 67.0000
8.9800 63.0000
9.0000 80.0000
9.0200 67.0000
9.0400 65.0000
9.0600 67.0000
9.0800 66.0000
9.1000 70.0000
9.1200 76.0000
9.1400 80.0000
9.1600 69.0000
9.1800 78.0000
9.2000 71.0000
9.2200 74.0000
9.2400 74.0000
9.2600 69.0000
9.2800 77.0000
9.3000 64.0000
9.3200 64.0000
9.3400 61.0000
9.3600 85.0000
9.3800 86.0000
9.4000 71.0000
9.4200 73.0000
9.4400 62.0000
9.4600 74.0000
9.4800 71.0000
9.5000 91.0000
9.5200 63.0000
9.5400 64.0000
9.5600 69.0000
9.5800 63.0000
9.6000 52.0000
9.6200 73.0000
9.6400 71.0000
9.6600 56.0000
9.6800 76.0000
9.7000 68.0000
9.7200 65.0000
9.7400 73.0000
9.7600 57.0000
9.7800 55.0000
9.8000 69.0000
9.8200 72.0000
9.8400 58.0000
9.8600 67.0000
9.8800 75.0000
9.9000 51.0000
9.9200 66.0000
9.9400 70.0000
9.9600 70.0000
9.9800 75.0000
10.0000 79.0000
10.0200 70.0000
10.0400 73.0000
10.0600 60.0000
10.0800 65.0000
10.1000 66.0000
10.1200 62.0000
10.1400 61.0000
10.1600 65.0000
10.1800 70.0000
10.2000 61.0000
10.2200 63.0000
10.2400 78.0000
10.2600 78.0000
10.2800 58.0000
10.3000 83.0000
10.3200 75.0000
10.3400 59.0000
10.3600 57.0000
10.3800 60.0000
10.4000 62.0000
10.4200 67.0000
10.4400 82.0000
10.4600 72.0000
10.4800 60.0000
10.5000 54.0000
10.5200 66.0000
10.5400 68.0000
10.5600 59.0000
10.5800 52.0000
10.6000 60.0000
10.6200 56.0000
10.6400 73.0000
10.6600 52.0000
10.6800 72.0000
10.7000 76.0000
10.7200 68.0000
10.7400 71.0000
10.7600 74.0000
10.7800 91.0000
10.8000 70.0000
10.8200 49.0000
10.8400 69.0000
10.8600 71.0000
10.8800 53.0000
10.9000 59.0000
10.9200 70.0000
10.9400 61.0000
10.9600 58.0000
10.9800 61.0000
11.0000 61.0000
11.0200 62.0000
11.0400 46.0000
11.0600 63.0000
11.0800 74.0000
11.1000 57.0000
11.1200 54.0000
11.1400 58.0000
11.1600 44.0000
11.1800 61.0000
11.2000 61.0000
11.2200 60.0000
11.2400 57.0000
11.2600 59.0000
11.2800 46.0000
11.3000 70.0000
11.3200 64.0000
11.3400 62.0000
11.3600 62.0000
11.3800 58.0000
11.4000 68.0000
11.4200 59.0000
11.4400 60.0000
11.4600 76.0000
11.4800 61.0000
11.5000 53.0000
11.5200 46.0000
11.5400 72.0000
11.5600 57.0000
11.5800 69.0000
11.6000 61.0000
11.6200 53.0000
11.6400 66.0000
11.6600 59.0000
11.6800 54.0000
11.7000 63.0000
11.7200 54.0000
11.7400 60.0000
11.7600 65.0000
11.7800 57.0000
11.8000 62.0000
11.8200 55.0000
11.8400 48.0000
11.8600 63.0000
11.8800 53.0000
11.9000 49.0000
11.9200 60.0000
11.9400 68.0000
11.9600 57.0000
11.9800 60.0000
12.0000 71.0000
12.0200 57.0000
12.0400 57.0000
12.0600 64.0000
12.0800 55.0000
12.1000 48.0000
12.1200 54.0000
12.1400 53.0000
12.1600 56.0000
12.1800 51.0000
12.2000 75.0000
12.2200 42.0000
12.2400 64.0000
12.2600 59.0000
12.2800 60.0000
12.3000 60.0000
12.3200 66.0000
12.3400 57.0000
12.3600 58.0000
12.3800 50.0000
12.4000 46.0000
12.4200 49.0000
12.4400 62.0000
12.4600 48.0000
12.4800 61.0000
12.5000 49.0000
12.5200 48.0000
12.5400 59.0000
12.5600 53.0000
12.5800 59.0000
12.6000 47.0000
12.6200 51.0000
12.6400 70.0000
12.6600 68.0000
12.6800 61.0000
12.7000 51.0000
12.7200 63.0000
12.7400 66.0000
12.7600 59.0000
12.7800 60.0000
12.8000 56.0000
12.8200 61.0000
12.8400 57.0000
12.8600 54.0000
12.8800 58.0000
12.9000 55.0000
12.9200 58.0000
12.9400 61.0000
12.9600 56.0000
12.9800 47.0000
13.0000 58.0000
13.0200 60.0000
13.0400 43.0000
13.0600 57.0000
13.0800 42.0000
13.1000 51.0000
13.1200 68.0000
13.1400 51.0000
13.1600 50.0000
13.1800 60.0000
13.2000 45.0000
13.2200 46.0000
13.2400 58.0000
13.2600 63.0000
13.2800 55.0000
13.3000 63.0000
13.3200 60.0000
13.3400 35.0000
13.3600 52.0000
13.3800 57.0000
13.4000 52.0000
13.4200 50.0000
13.4400 53.0000
13.4600 44.0000
13.4800 48.0000
13.5000 55.0000
13.5200 64.0000
13.5400 46.0000
13.5600 47.0000
13.5800 48.0000
13.6000 45.0000
13.6200 50.0000
13.6400 47.0000
13.6600 50.0000
13.6800 59.0000
13.7000 42.0000
13.7200 53.0000
13.7400 63.0000
13.7600 51.0000
13.7800 66.0000
13.8000 54.0000
13.8200 56.0000
13.8400 33.0000
13.8600 42.0000
13.8800 59.0000
13.9000 62.0000
13.9200 52.0000
13.9400 54.0000
13.9600 45.0000
13.9800 47.0000
14.0000 53.0000
14.0200 55.0000
14.0400 56.0000
14.0600 39.0000
14.0800 44.0000
14.1000 59.0000
14.1200 63.0000
14.1400 60.0000
14.1600 50.0000
14.1800 40.0000
14.2000 46.0000
14.2200 61.0000
14.2400 52.0000
14.2600 54.0000
14.2800 55.0000
14.3000 52.0000
14.3200 54.0000
14.3400 52.0000
14.3600 50.0000
14.3800 37.0000
14.4000 59.0000
14.4200 58.0000
14.4400 37.0000
14.4600 38.0000
14.4800 44.0000
14.5000 56.0000
14.5200 48.0000
14.5400 56.0000
14.5600 59.0000
14.5800 53.0000
14.6000 60.0000
14.6200 64.0000
14.6400 54.0000
14.6600 43.0000
14.6800 62.0000
14.7000 42.0000
14.7200 53.0000
14.7400 44.0000
14.7600 52.0000
14.7800 48.0000
14.8000 72.0000
14.8200 46.0000
14.8400 54.0000
14.8600 62.0000
14.8800 57.0000
14.9000 53.0000
14.9200 61.0000
14.9400 68.0000
14.9600 54.0000
14.9800 40.0000
15.0000 48.0000
15.0200 46.0000
15.0400 40.0000
15.0600 42.0000
15.0800 53.0000
15.1000 42.0000
15.1200 42.0000
15.1400 44.0000
15.1600 50.0000
15.1800 55.0000
15.2000 41.0000
15.2200 38.0000
15.2400 36.0000
15.2600 54.0000
15.2800 60.0000
15.3000 43.0000
15.3200 51.0000
15.3400 41.0000
15.3600 54.0000
15.3800 37.0000
15.4000 54.0000
15.4200 54.0000
15.4400 49.0000
15.4600 38.0000
15.4800 49.0000
15.5000 36.0000
15.5200 47.0000
15.5400 57.0000
15.5600 39.0000
15.5800 53.0000
15.6000 51.0000
15.6200 46.0000
15.6400 48.0000
15.6600 64.0000
15.6800 47.0000
15.7000 59.0000
15.7200 45.0000
15.7400 44.0000
15.7600 53.0000
15.7800 48.0000
15.8000 38.0000
15.8200 51.0000
15.8400 50.0000
15.8600 55.0000
15.8800 48.0000
15.9000 52.0000
15.9200 45.0000
15.9400 45.0000
15.9600 53.0000
15.9800 48.0000
16.0000 45.0000
16.0200 54.0000
16.0400 35.0000
16.0600 53.0000
16.0800 44.0000
16.1000 55.0000
16.1200 43.0000
16.1400 51.0000
16.1600 63.0000
16.1800 49.0000
16.2000 42.0000
16.2200 37.0000
16.2400 47.0000
16.2600 46.0000
16.2800 51.0000
16.3000 47.0000
16.3200 54.0000
16.3400 55.0000
16.3600 54.0000
16.3800 55.0000
16.4000 44.0000
16.4200 59.0000
16.4400 54.0000
16.4600 51.0000
16.4800 50.0000
16.5000 43.0000
16.5200 53.0000
16.5400 43.0000
16.5600 57.0000
16.5800 41.0000
16.6000 47.0000
16.6200 36.0000
16.6400 59.0000
16.6600 33.0000
16.6800 65.0000
16.7000 43.0000
16.7200 47.0000
16.7400 52.0000
16.7600 56.0000
16.7800 53.0000
16.8000 46.0000
16.8200 53.0000
16.8400 54.0000
16.8600 49.0000
16.8800 42.0000
16.9000 50.0000
16.9200 50.0000
16.9400 43.0000
16.9600 49.0000
16.9800 54.0000
17.0000 51.0000
17.0200 48.0000
17.0400 48.0000
17.0600 38.0000
17.0800 43.0000
17.1000 48.0000
17.1200 55.0000
17.1400 52.0000
17.1600 45.0000
17.1800 46.0000
17.2000 55.0000
17.2200 44.0000
17.2400 47.0000
17.2600 39.0000
17.2800 45.0000
17.3000 61.0000
17.3200 42.0000
17.3400 55.0000
17.3600 47.0000
17.3800 58.0000
17.4000 43.0000
17.4200 49.0000
17.4400 43.0000
17.4600 54.0000
17.4800 56.0000
17.5000 39.0000
17.5200 42.0000
17.5400 45.0000
17.5600 52.0000
17.5800 38.0000
17.6000 56.0000
17.6200 46.0000
17.6400 55.0000
17.6600 60.0000
17.6800 43.0000
17.7000 50.0000
17.7200 48.0000
17.7400 44.0000
17.7600 49.0000
17.7800 36.0000
17.8000 51.0000
17.8200 32.0000
17.8400 39.0000
17.8600 40.0000
17.8800 54.0000
17.9000 52.0000
17.9200 45.0000
17.9400 29.0000
17.9600 41.0000
17.9800 52.0000
18.0000 57.0000
18.0200 53.0000
18.0400 52.0000
18.0600 40.0000
18.0800 53.0000
18.1000 51.0000
18.1200 47.0000
18.1400 31.0000
18.1600 42.0000
18.1800 43.0000
18.2000 39.0000
18.2200 47.0000
18.2400 41.0000
18.2600 36.0000
18.2800 35.0000
18.3000 47.0000
18.3200 37.0000
18.3400 38.0000
18.3600 46.0000
18.3800 43.0000
18.4000 53.0000
18.4200 40.0000
18.4400 40.0000
18.4600 42.0000
18.4800 39.0000
18.5000 37.0000
18.5200 45.0000
18.5400 51.0000
18.5600 34.0000
18.5800 43.0000
18.6000 46.0000
18.6200 50.0000
18.6400 40.0000
18.6600 53.0000
18.6800 38.0000
18.7000 44.0000
18.7200 49.0000
18.7400 52.0000
18.7600 40.0000
18.7800 49.0000
18.8000 43.0000
18.8200 64.0000
18.8400 36.0000
18.8600 38.0000
18.8800 37.0000
18.9000 33.0000
18.9200 44.0000
18.9400 45.0000
18.9600 52.0000
18.9800 58.0000
19.0000 33.0000
19.0200 33.0000
19.0400 31.0000
19.0600 48.0000
19.0800 50.0000
19.1000 36.0000
19.1200 46.0000
19.1400 47.0000
19.1600 37.0000
19.1800 41.0000
19.2000 29.0000
19.2200 36.0000
19.2400 39.0000
19.2600 43.0000
19.2800 31.0000
19.3000 36.0000
19.3200 32.0000
19.3400 50.0000
19.3600 42.0000
19.3800 54.0000
19.4000 36.0000
19.4200 41.0000
19.4400 48.0000
19.4600 44.0000
19.4800 47.0000
19.5000 42.0000
19.5200 41.0000
19.5400 36.0000
19.5600 42.0000
19.5800 41.0000
19.6000 51.0000
19.6200 43.0000
19.6400 39.0000
19.6600 48.0000
19.6800 31.0000
19.7000 35.0000
19.7200 32.0000
19.7400 42.0000
19.7600 51.0000
19.7800 48.0000
19.8000 35.0000
19.8200 48.0000
19.8400 42.0000
19.8600 33.0000
19.8800 36.0000
19.9000 37.0000
19.9200 49.0000
19.9400 31.0000
19.9600 32.0000
19.9800 38.0000
20.0000 34.0000
20.0200 42.0000
20.0400 55.0000
20.0600 43.0000
20.0800 49.0000
20.1000 42.0000
20.1200 41.0000
20.1400 30.0000
20.1600 37.0000
20.1800 42.0000
20.2000 38.0000
20.2200 39.0000
20.2400 45.0000
20.2600 39.0000
20.2800 46.0000
20.3000 38.0000
20.3200 40.0000
20.3400 47.0000
20.3600 38.0000
20.3800 45.0000
20.4000 32.0000
20.4200 50.0000
20.4400 33.0000
20.4600 28.0000
20.4800 36.0000
20.5000 36.0000
20.5200 50.0000
20.5400 43.0000
20.5600 30.0000
20.5800 28.0000
20.6000 32.0000
20.6200 54.0000
20.6400 38.0000
20.6600 51.0000
20.6800 38.0000
20.7000 40.0000
20.7200 37.0000
20.7400 32.0000
20.7600 32.0000
20.7800 38.0000
20.8000 40.0000
20.8200 34.0000
20.8400 33.0000
20.8600 32.0000
20.8800 36.0000
20.9000 43.0000
20.9200 41.0000
20.9400 36.0000
20.9600 33.0000
20.9800 44.0000
21.0000 37.0000
21.0200 34.0000
21.0400 36.0000
21.0600 32.0000
21.0800 39.0000
21.1000 32.0000
21.1200 41.0000
21.1400 40.0000
21.1600 41.0000
21.1800 45.0000
21.2000 44.0000
21.2200 39.0000
21.2400 40.0000
21.2600 43.0000
21.2800 45.0000
21.3000 46.0000
21.3200 45.0000
21.3400 30.0000
21.3600 50.0000
21.3800 37.0000
21.4000 44.0000
21.4200 38.0000
21.4400 35.0000
21.4600 31.0000
21.4800 48.0000
21.5000 33.0000
21.5200 47.0000
21.5400 45.0000
21.5600 36.0000
21.5800 34.0000
21.6000 40.0000
21.6200 53.0000
21.6400 30.0000
21.6600 24.0000
21.6800 44.0000
21.7000 40.0000
21.7200 50.0000
21.7400 32.0000
21.7600 35.0000
21.7800 41.0000
21.8000 32.0000
21.8200 43.0000
21.8400 49.0000
21.8600 40.0000
21.8800 39.0000
21.9000 45.0000
21.9200 31.0000
21.9400 40.0000
21.9600 41.0000
21.9800 37.0000
22.0000 38.0000
22.0200 33.0000
22.0400 37.0000
22.0600 34.0000
22.0800 41.0000
22.1000 22.0000
22.1200 28.0000
22.1400 33.0000
22.1600 48.0000
22.1800 26.0000
22.2000 37.0000
22.2200 39.0000
22.2400 37.0000
22.2600 37.0000
22.2800 46.0000
22.3000 35.0000
22.3200 44.0000
22.3400 38.0000
22.3600 44.0000
22.3800 30.0000
22.4000 35.0000
22.4200 31.0000
22.4400 39.0000
22.4600 35.0000
22.4800 34.0000
22.5000 34.0000
22.5200 39.0000
22.5400 36.0000
22.5600 44.0000
22.5800 35.0000
22.6000 39.0000
22.6200 39.0000
22.6400 39.0000
22.6600 35.0000
22.6800 46.0000
22.7000 45.0000
22.7200 41.0000
22.7400 54.0000
22.7600 36.0000
22.7800 34.0000
22.8000 29.0000
22.8200 42.0000
22.8400 34.0000
22.8600 32.0000
22.8800 51.0000
22.9000 40.0000
22.9200 32.0000
22.9400 43.0000
22.9600 38.0000
22.9800 43.0000
23.0000 39.0000
23.0200 26.0000
23.0400 50.0000
23.0600 37.0000
23.0800 42.0000
23.1000 36.0000
23.1200 28.0000
23.1400 30.0000
23.1600 32.0000
23.1800 49.0000
23.2000 37.0000
23.2200 40.0000
23.2400 40.0000
23.2600 35.0000
23.2800 35.0000
23.3000 42.0000
23.3200 47.0000
23.3400 38.0000
23.3600 38.0000
23.3800 40.0000
23.4000 33.0000
23.4200 34.0000
23.4400 34.0000
23.4600 34.0000
23.4800 28.0000
23.5000 33.0000
23.5200 31.0000
23.5400 36.0000
23.5600 42.0000
23.5800 43.0000
23.6000 43.0000
23.6200 37.0000
23.6400 39.0000
23.6600 35.0000
23.6800 45.0000
23.7000 38.0000
23.7200 31.0000
23.7400 45.0000
23.7600 42.0000
23.7800 33.0000
23.8000 31.0000
23.8200 39.0000
23.8400 32.0000
23.8600 28.0000
23.8800 26.0000
23.9000 34.0000
23.9200 35.0000
23.9400 40.0000
23.9600 40.0000
23.9800 28.0000
24.0000 20.0000
24.0200 42.0000
24.0400 34.0000
24.0600 32.0000
24.0800 32.0000
24.1000 38.0000
24.1200 38.0000
24.1400 38.0000
24.1600 37.0000
24.1800 29.0000
24.2000 32.0000
24.2200 42.0000
24.2400 35.0000
24.2600 38.0000
24.2800 33.0000
24.3000 30.0000
24.3200 25.0000
24.3400 33.0000
24.3600 23.0000
24.3800 28.0000
24.4000 32.0000
24.4200 36.0000
24.4400 36.0000
24.4600 33.0000
24.4800 22.0000
24.5000 34.0000
24.5200 41.0000
24.5400 42.0000
24.5600 22.0000
24.5800 38.0000
24.6000 30.0000
24.6200 31.0000
24.6400 20.0000
24.6600 45.0000
24.6800 28.0000
24.7000 41.0000
24.7200 35.0000
24.7400 42.0000
24.7600 39.0000
24.7800 37.0000
24.8000 41.0000
24.8200 33.0000
24.8400 36.0000
24.8600 30.0000
24.8800 44.0000
24.9000 27.0000
24.9200 33.0000
24.9400 40.0000
24.9600 41.0000
24.9800 47.0000
25.0000 46.0000
25.0200 34.0000
25.0400 44.0000
25.0600 29.0000
25.0800 33.0000
25.1000 35.0000
25.1200 37.0000
25.1400 26.0000
25.1600 38.0000
25.1800 28.0000
25.2000 30.0000
25.2200 35.0000
25.2400 30.0000
25.2600 32.0000
25.2800 41.0000
25.3000 38.0000
25.3200 38.0000
25.3400 39.0000
25.3600 47.0000
25.3800 33.0000
25.4000 38.0000
25.4200 43.0000
25.4400 47.0000
25.4600 30.0000
25.4800 38.0000
25.5000 46.0000
25.5200 39.0000
25.5400 37.0000
25.5600 42.0000
25.5800 36.0000
25.6000 37.0000
25.6200 47.0000
25.6400 34.0000
25.6600 40.0000
25.6800 46.0000
25.7000 40.0000
25.7200 37.0000
25.7400 38.0000
25.7600 26.0000
25.7800 41.0000
25.8000 46.0000
25.8200 36.0000
25.8400 32.0000
25.8600 29.0000
25.8800 37.0000
25.9000 35.0000
25.9200 26.0000
25.9400 32.0000
25.9600 25.0000
25.9800 37.0000
26.0000 38.0000
26.0200 24.0000
26.0400 35.0000
26.0600 42.0000
26.0800 39.0000
26.1000 31.0000
26.1200 34.0000
26.1400 36.0000
26.1600 35.0000
26.1800 40.0000
26.2000 29.0000
26.2200 35.0000
26.2400 24.0000
26.2600 28.0000
26.2800 32.0000
26.3000 42.0000
26.3200 44.0000
26.3400 48.0000
26.3600 39.0000
26.3800 38.0000
26.4000 26.0000
26.4200 23.0000
26.4400 38.0000
26.4600 32.0000
26.4800 44.0000
26.5000 33.0000
26.5200 38.0000
26.5400 36.0000
26.5600 38.0000
26.5800 45.0000
26.6000 39.0000
26.6200 29.0000
26.6400 28.0000
26.6600 40.0000
26.6800 29.0000
26.7000 30.0000
26.7200 39.0000
26.7400 36.0000
26.7600 45.0000
26.7800 36.0000
26.8000 42.0000
26.8200 28.0000
26.8400 38.0000
26.8600 38.0000
26.8800 29.0000
26.9000 34.0000
26.9200 33.0000
26.9400 31.0000
26.9600 30.0000
26.9800 29.0000
27.0000 44.0000
27.0200 32.0000
27.0400 32.0000
27.0600 40.0000
27.0800 30.0000
27.1000 37.0000
27.1200 38.0000
27.1400 35.0000
27.1600 30.0000
27.1800 43.0000
27.2000 48.0000
27.2200 33.0000
27.2400 32.0000
27.2600 42.0000
27.2800 35.0000
27.3000 39.0000
27.3200 28.0000
27.3400 38.0000
27.3600 32.0000
27.3800 41.0000
27.4000 40.0000
27.4200 51.0000
27.4400 38.0000
27.4600 44.0000
27.4800 44.0000
27.5000 37.0000
27.5200 41.0000
27.5400 37.0000
27.5600 45.0000
27.5800 32.0000
27.6000 45.0000
27.6200 39.0000
27.6400 32.0000
27.6600 50.0000
27.6800 44.0000
27.7000 34.0000
27.7200 37.0000
27.7400 31.0000
27.7600 41.0000
27.7800 50.0000
27.8000 32.0000
27.8200 33.0000
27.8400 50.0000
27.8600 44.0000
27.8800 27.0000
27.9000 47.0000
27.9200 36.0000
27.9400 45.0000
27.9600 47.0000
27.9800 41.0000
28.0000 35.0000
28.0200 56.0000
28.0400 35.0000
28.0600 45.0000
28.0800 44.0000
28.1000 41.0000
28.1200 68.0000
28.1400 70.0000
28.1600 70.0000
28.1800 54.0000
28.2000 71.0000
28.2200 67.0000
28.2400 60.0000
28.2600 63.0000
28.2800 76.0000
28.3000 67.0000
28.3200 60.0000
28.3400 68.0000
28.3600 83.0000
28.3800 96.0000
28.4000 92.0000
28.4200 91.0000
28.4400 101.0000
28.4600 116.0000
28.4800 108.0000
28.5000 130.0000
28.5200 112.0000
28.5400 113.0000
28.5600 94.0000
28.5800 78.0000
28.6000 63.0000
28.6200 72.0000
28.6400 61.0000
28.6600 50.0000
28.6800 52.0000
28.7000 50.0000
28.7200 46.0000
28.7400 62.0000
28.7600 47.0000
28.7800 36.0000
28.8000 45.0000
28.8200 42.0000
28.8400 49.0000
28.8600 43.0000
28.8800 40.0000
28.9000 53.0000
28.9200 47.0000
28.9400 42.0000
28.9600 32.0000
28.9800 39.0000
29.0000 42.0000
29.0200 34.0000
29.0400 48.0000
29.0600 44.0000
29.0800 43.0000
29.1000 33.0000
29.1200 46.0000
29.1400 34.0000
29.1600 41.0000
29.1800 44.0000
29.2000 40.0000
29.2200 30.0000
29.2400 40.0000
29.2600 38.0000
29.2800 35.0000
29.3000 36.0000
29.3200 27.0000
29.3400 51.0000
29.3600 31.0000
29.3800 36.0000
29.4000 38.0000
29.4200 49.0000
29.4400 43.0000
29.4600 32.0000
29.4800 39.0000
29.5000 28.0000
29.5200 29.0000
29.5400 29.0000
29.5600 38.0000
29.5800 45.0000
29.6000 39.0000
29.6200 36.0000
29.6400 32.0000
29.6600 43.0000
29.6800 51.0000
29.7000 38.0000
29.7200 40.0000
29.7400 30.0000
29.7600 28.0000
29.7800 45.0000
29.8000 44.0000
29.8200 40.0000
29.8400 54.0000
29.8600 28.0000
29.8800 44.0000
29.9000 37.0000
29.9200 30.0000
29.9400 43.0000
29.9600 37.0000
29.9800 27.0000
30.0000 39.0000
30.0200 37.0000
30.0400 49.0000
30.0600 48.0000
30.0800 31.0000
30.1000 32.0000
30.1200 42.0000
30.1400 46.0000
30.1600 48.0000
30.1800 49.0000
30.2000 41.0000
30.2200 35.0000
30.2400 50.0000
30.2600 35.0000
30.2800 40.0000
30.3000 43.0000
30.3200 56.0000
30.3400 58.0000
30.3600 41.0000
30.3800 46.0000
30.4000 44.0000
30.4200 57.0000
30.4400 32.0000
30.4600 47.0000
30.4800 38.0000
30.5000 37.0000
30.5200 55.0000
30.5400 42.0000
30.5600 39.0000
30.5800 35.0000
30.6000 63.0000
30.6200 57.0000
30.6400 42.0000
30.6600 44.0000
30.6800 43.0000
30.7000 34.0000
30.7200 46.0000
30.7400 47.0000
30.7600 41.0000
30.7800 50.0000
30.8000 51.0000
30.8200 47.0000
30.8400 55.0000
30.8600 62.0000
30.8800 47.0000
30.9000 60.0000
30.9200 63.0000
30.9400 44.0000
30.9600 46.0000
30.9800 61.0000
31.0000 53.0000
31.0200 43.0000
31.0400 55.0000
31.0600 44.0000
31.0800 59.0000
31.1000 53.0000
31.1200 41.0000
31.1400 57.0000
31.1600 48.0000
31.1800 53.0000
31.2000 49.0000
31.2200 47.0000
31.2400 52.0000
31.2600 58.0000
31.2800 59.0000
31.3000 63.0000
31.3200 44.0000
31.3400 60.0000
31.3600 62.0000
31.3800 68.0000
31.4000 63.0000
31.4200 75.0000
31.4400 69.0000
31.4600 79.0000
31.4800 111.0000
31.5000 85.0000
31.5200 118.0000
31.5400 118.0000
31.5600 115.0000
31.5800 115.0000
31.6000 121.0000
31.6200 157.0000
31.6400 136.0000
31.6600 151.0000
31.6800 139.0000
31.7000 146.0000
31.7200 159.0000
31.7400 161.0000
31.7600 149.0000
31.7800 170.0000
31.8000 167.0000
31.8200 168.0000
31.8400 174.0000
31.8600 195.0000
31.8800 165.0000
31.9000 154.0000
31.9200 165.0000
31.9400 154.0000
31.9600 145.0000
31.9800 127.0000
32.0000 120.0000
32.0200 102.0000
32.0400 107.0000
32.0600 86.0000
32.0800 101.0000
32.1000 92.0000
32.1200 81.0000
32.1400 86.0000
32.1600 64.0000
32.1800 75.0000
32.2000 60.0000
32.2200 85.0000
32.2400 76.0000
32.2600 70.0000
32.2800 86.0000
32.3000 62.0000
32.3200 85.0000
32.3400 82.0000
32.3600 70.0000
32.3800 81.0000
32.4000 80.0000
32.4200 79.0000
32.4400 76.0000
32.4600 76.0000
32.4800 75.0000
32.5000 75.0000
32.5200 87.0000
32.5400 78.0000
32.5600 85.0000
32.5800 95.0000
32.6000 94.0000
32.6200 124.0000
32.6400 115.0000
32.6600 117.0000
32.6800 107.0000
32.7000 116.0000
32.7200 114.0000
32.7400 128.0000
32.7600 145.0000
32.7800 135.0000
32.8000 152.0000
32.8200 160.0000
32.8400 157.0000
32.8600 167.0000
32.8800 186.0000
32.9000 188.0000
32.9200 195.0000
32.9400 213.0000
32.9600 240.0000
32.9800 240.0000
33.0000 235.0000
33.0200 270.0000
33.0400 276.0000
33.0600 304.0000
33.0800 297.0000
33.1000 351.0000
33.1200 406.0000
33.1400 401.0000
33.1600 447.0000
33.1800 442.0000
33.2000 512.0000
33.2200 549.0000
33.2400 575.0000
33.2600 570.0000
33.2800 621.0000
33.3000 594.0000
33.3200 621.0000
33.3400 692.0000
33.3600 735.0000
33.3800 773.0000
33.4000 816.0000
33.4200 899.0000
33.4400 981.0000
33.4600 982.0000
33.4800 1094.0000
33.5000 1173.0000
33.5200 1268.0000
33.5400 1324.0000
33.5600 1545.0000
33.5800 1646.0000
33.6000 1836.0000
33.6200 1945.0000
33.6400 2198.0000
33.6600 2397.0000
33.6800 2797.0000
33.7000 2988.0000
33.7200 3356.0000
33.7400 3644.0000
33.7600 3973.0000
33.7800 4494.0000
33.8000 4896.0000
33.8200 5159.0000
33.8400 5662.0000
33.8600 6021.0000
33.8800 6495.0000
33.9000 6802.0000
33.9200 7614.0000
33.9400 8355.0000
33.9600 8860.0000
33.9800 9946.0000
34.0000 11475.0000
34.0200 13163.0000
34.0400 15174.0000
34.0600 16969.0000
34.0800 19099.0000
34.1000 21295.0000
34.1200 23343.0000
34.1400 25690.0000
34.1600 27840.0000
34.1800 29955.0000
34.2000 31407.0000
34.2200 34126.0000
34.2400 36091.0000
34.2600 37794.0000
34.2800 39881.0000
34.3000 41982.0000
34.3200 44086.0000
34.3400 45385.0000
34.3600 46613.0000
34.3800 48090.0000
34.4000 48130.0000
34.4200 48538.0000
34.4400 48108.0000
34.4600 46343.0000
34.4800 44417.0000
34.5000 42288.0000
34.5200 39411.0000
34.5400 36972.0000
34.5600 33364.0000
34.5800 30210.0000
34.6000 26716.0000
34.6200 23477.0000
34.6400 20919.0000
34.6600 18264.0000
34.6800 16261.0000
34.7000 13825.0000
34.7200 12040.0000
34.7400 10564.0000
34.7600 8943.0000
34.7800 7739.0000
34.8000 6850.0000
34.8200 5777.0000
34.8400 5065.0000
34.8600 4297.0000
34.8800 3742.0000
34.9000 3247.0000
34.9200 3041.0000
34.9400 2581.0000
34.9600 2405.0000
34.9800 2187.0000
35.0000 2003.0000
35.0200 1853.0000
35.0400 1725.0000
35.0600 1614.0000
35.0800 1484.0000
35.1000 1429.0000
35.1200 1325.0000
35.1400 1294.0000
35.1600 1174.0000
35.1800 1176.0000
35.2000 1081.0000
35.2200 1065.0000
35.2400 973.0000
35.2600 947.0000
35.2800 903.0000
35.3000 880.0000
35.3200 900.0000
35.3400 856.0000
35.3600 819.0000
35.3800 748.0000
35.4000 736.0000
35.4200 722.0000
35.4400 726.0000
35.4600 677.0000
35.4800 683.0000
35.5000 627.0000
35.5200 685.0000
35.5400 645.0000
35.5600 629.0000
35.5800 591.0000
35.6000 589.0000
35.6200 565.0000
35.6400 616.0000
35.6600 579.0000
35.6800 588.0000
35.7000 602.0000
35.7200 542.0000
35.7400 546.0000
35.7600 550.0000
35.7800 551.0000
35.8000 565.0000
35.8200 626.0000
35.8400 640.0000
35.8600 657.0000
35.8800 703.0000
35.9000 693.0000
35.9200 824.0000
35.9400 890.0000
35.9600 952.0000
35.9800 1016.0000
36.0000 1114.0000
36.0200 1274.0000
36.0400 1318.0000
36.0600 1391.0000
36.0800 1383.0000
36.1000 1559.0000
36.1200 1612.0000
36.1400 1702.0000
36.1600 1779.0000
36.1800 1774.0000
36.2000 1933.0000
36.2200 1877.0000
36.2400 1983.0000
36.2600 2058.0000
36.2800 2038.0000
36.3000 1987.0000
36.3200 1981.0000
36.3400 1927.0000
36.3600 1883.0000
36.3800 1800.0000
36.4000 1631.0000
36.4200 1586.0000
36.4400 1434.0000
36.4600 1300.0000
36.4800 1181.0000
36.5000 1063.0000
36.5200 934.0000
36.5400 887.0000
36.5600 746.0000
36.5800 683.0000
36.6000 625.0000
36.6200 532.0000
36.6400 491.0000
36.6600 450.0000
36.6800 406.0000
36.7000 386.0000
36.7200 299.0000
36.7400 290.0000
36.7600 267.0000
36.7800 246.0000
36.8000 213.0000
36.8200 222.0000
36.8400 191.0000
36.8600 197.0000
36.8800 190.0000
36.9000 173.0000
36.9200 160.0000
36.9400 166.0000
36.9600 166.0000
36.9800 167.0000
37.0000 149.0000
37.0200 158.0000
37.0400 167.0000
37.0600 113.0000
37.0800 126.0000
37.1000 118.0000
37.1200 114.0000
37.1400 140.0000
37.1600 138.0000
37.1800 124.0000
37.2000 123.0000
37.2200 112.0000
37.2400 109.0000
37.2600 120.0000
37.2800 118.0000
37.3000 103.0000
37.3200 117.0000
37.3400 123.0000
37.3600 110.0000
37.3800 109.0000
37.4000 109.0000
37.4200 104.0000
37.4400 88.0000
37.4600 96.0000
37.4800 90.0000
37.5000 79.0000
37.5200 95.0000
37.5400 109.0000
37.5600 95.0000
37.5800 106.0000
37.6000 95.0000
37.6200 89.0000
37.6400 104.0000
37.6600 75.0000
37.6800 84.0000
37.7000 81.0000
37.7200 96.0000
37.7400 70.0000
37.7600 85.0000
37.7800 89.0000
37.8000 76.0000
37.8200 84.0000
37.8400 80.0000
37.8600 85.0000
37.8800 62.0000
37.9000 69.0000
37.9200 77.0000
37.9400 84.0000
37.9600 67.0000
37.9800 62.0000
38.0000 70.0000
38.0200 74.0000
38.0400 83.0000
38.0600 85.0000
38.0800 63.0000
38.1000 70.0000
38.1200 66.0000
38.1400 62.0000
38.1600 57.0000
38.1800 61.0000
38.2000 65.0000
38.2200 63.0000
38.2400 55.0000
38.2600 56.0000
38.2800 77.0000
38.3000 62.0000
38.3200 58.0000
38.3400 72.0000
38.3600 68.0000
38.3800 48.0000
38.4000 52.0000
38.4200 68.0000
38.4400 55.0000
38.4600 58.0000
38.4800 72.0000
38.5000 47.0000
38.5200 59.0000
38.5400 69.0000
38.5600 58.0000
38.5800 42.0000
38.6000 56.0000
38.6200 58.0000
38.6400 60.0000
38.6600 47.0000
38.6800 56.0000
38.7000 64.0000
38.7200 69.0000
38.7400 67.0000
38.7600 48.0000
38.7800 59.0000
38.8000 63.0000
38.8200 62.0000
38.8400 43.0000
38.8600 47.0000
38.8800 52.0000
38.9000 54.0000
38.9200 43.0000
38.9400 58.0000
38.9600 53.0000
38.9800 60.0000
39.0000 60.0000
39.0200 54.0000
39.0400 54.0000
39.0600 71.0000
39.0800 47.0000
39.1000 63.0000
39.1200 48.0000
39.1400 48.0000
39.1600 64.0000
39.1800 54.0000
39.2000 53.0000
39.2200 54.0000
39.2400 52.0000
39.2600 49.0000
39.2800 42.0000
39.3000 45.0000
39.3200 36.0000
39.3400 43.0000
39.3600 46.0000
39.3800 55.0000
39.4000 45.0000
39.4200 59.0000
39.4400 49.0000
39.4600 47.0000
39.4800 52.0000
39.5000 50.0000
39.5200 41.0000
39.5400 54.0000
39.5600 61.0000
39.5800 49.0000
39.6000 49.0000
39.6200 46.0000
39.6400 49.0000
39.6600 46.0000
39.6800 44.0000
39.7000 52.0000
39.7200 56.0000
39.7400 56.0000
39.7600 61.0000
39.7800 48.0000
39.8000 58.0000
39.8200 43.0000
39.8400 31.0000
39.8600 34.0000
39.8800 35.0000
39.9000 54.0000
39.9200 49.0000
39.9400 43.0000
39.9600 35.0000
39.9800 41.0000
40.0000 33.0000
40.0200 45.0000
40.0400 37.0000
40.0600 44.0000
40.0800 32.0000
40.1000 47.0000
40.1200 36.0000
40.1400 54.0000
40.1600 29.0000
40.1800 37.0000
40.2000 50.0000
40.2200 41.0000
40.2400 41.0000
40.2600 40.0000
40.2800 35.0000
40.3000 42.0000
40.3200 40.0000
40.3400 44.0000
40.3600 38.0000
40.3800 38.0000
40.4000 32.0000
40.4200 37.0000
40.4400 42.0000
40.4600 34.0000
40.4800 35.0000
40.5000 46.0000
40.5200 48.0000
40.5400 42.0000
40.5600 32.0000
40.5800 26.0000
40.6000 34.0000
40.6200 39.0000
40.6400 42.0000
40.6600 32.0000
40.6800 51.0000
40.7000 35.0000
40.7200 41.0000
40.7400 38.0000
40.7600 37.0000
40.7800 30.0000
40.8000 37.0000
40.8200 33.0000
40.8400 33.0000
40.8600 38.0000
40.8800 35.0000
40.9000 33.0000
40.9200 51.0000
40.9400 41.0000
40.9600 36.0000
40.9800 40.0000
41.0000 38.0000
41.0200 40.0000
41.0400 38.0000
41.0600 38.0000
41.0800 45.0000
41.1000 44.0000
41.1200 52.0000
41.1400 30.0000
41.1600 38.0000
41.1800 34.0000
41.2000 39.0000
41.2200 31.0000
41.2400 34.0000
41.2600 35.0000
41.2800 44.0000
41.3000 31.0000
41.3200 44.0000
41.3400 36.0000
41.3600 27.0000
41.3800 33.0000
41.4000 43.0000
41.4200 45.0000
41.4400 36.0000
41.4600 34.0000
41.4800 26.0000
41.5000 31.0000
41.5200 32.0000
41.5400 32.0000
41.5600 29.0000
41.5800 48.0000
41.6000 45.0000
41.6200 33.0000
41.6400 33.0000
41.6600 46.0000
41.6800 33.0000
41.7000 40.0000
41.7200 36.0000
41.7400 29.0000
41.7600 31.0000
41.7800 33.0000
41.8000 30.0000
41.8200 42.0000
41.8400 35.0000
41.8600 31.0000
41.8800 50.0000
41.9000 32.0000
41.9200 29.0000
41.9400 27.0000
41.9600 40.0000
41.9800 38.0000
42.0000 34.0000
42.0200 35.0000
42.0400 39.0000
42.0600 33.0000
42.0800 34.0000
42.1000 35.0000
42.1200 28.0000
42.1400 29.0000
42.1600 25.0000
42.1800 33.0000
42.2000 29.0000
42.2200 27.0000
42.2400 28.0000
42.2600 37.0000
42.2800 34.0000
42.3000 45.0000
42.3200 40.0000
42.3400 34.0000
42.3600 34.0000
42.3800 34.0000
42.4000 32.0000
42.4200 30.0000
42.4400 25.0000
42.4600 33.0000
42.4800 37.0000
42.5000 34.0000
42.5200 31.0000
42.5400 44.0000
42.5600 36.0000
42.5800 29.0000
42.6000 30.0000
42.6200 42.0000
42.6400 19.0000
42.6600 29.0000
42.6800 39.0000
42.7000 31.0000
42.7200 35.0000
42.7400 37.0000
42.7600 39.0000
42.7800 34.0000
42.8000 31.0000
42.8200 30.0000
42.8400 39.0000
42.8600 48.0000
42.8800 34.0000
42.9000 28.0000
42.9200 34.0000
42.9400 41.0000
42.9600 36.0000
42.9800 28.0000
43.0000 28.0000
43.0200 30.0000
43.0400 25.0000
43.0600 34.0000
43.0800 20.0000
43.1000 31.0000
43.1200 39.0000
43.1400 38.0000
43.1600 26.0000
43.1800 26.0000
43.2000 28.0000
43.2200 29.0000
43.2400 35.0000
43.2600 32.0000
43.2800 40.0000
43.3000 37.0000
43.3200 32.0000
43.3400 24.0000
43.3600 19.0000
43.3800 38.0000
43.4000 30.0000
43.4200 37.0000
43.4400 30.0000
43.4600 39.0000
43.4800 30.0000
43.5000 28.0000
43.5200 29.0000
43.5400 28.0000
43.5600 34.0000
43.5800 27.0000
43.6000 32.0000
43.6200 29.0000
43.6400 29.0000
43.6600 37.0000
43.6800 29.0000
43.7000 40.0000
43.7200 40.0000
43.7400 38.0000
43.7600 30.0000
43.7800 36.0000
43.8000 25.0000
43.8200 37.0000
43.8400 43.0000
43.8600 34.0000
43.8800 36.0000
43.9000 39.0000
43.9200 34.0000
43.9400 38.0000
43.9600 33.0000
43.9800 51.0000
44.0000 31.0000
44.0200 41.0000
44.0400 28.0000
44.0600 40.0000
44.0800 33.0000
44.1000 42.0000
44.1200 42.0000
44.1400 44.0000
44.1600 34.0000
44.1800 38.0000
44.2000 47.0000
44.2200 39.0000
44.2400 32.0000
44.2600 45.0000
44.2800 40.0000
44.3000 48.0000
44.3200 50.0000
44.3400 66.0000
44.3600 68.0000
44.3800 72.0000
44.4000 66.0000
44.4200 63.0000
44.4400 63.0000
44.4600 57.0000
44.4800 62.0000
44.5000 72.0000
44.5200 70.0000
44.5400 92.0000
44.5600 68.0000
44.5800 69.0000
44.6000 49.0000
44.6200 71.0000
44.6400 62.0000
44.6600 63.0000
44.6800 59.0000
44.7000 70.0000
44.7200 74.0000
44.7400 55.0000
44.7600 45.0000
44.7800 67.0000
44.8000 60.0000
44.8200 55.0000
44.8400 32.0000
44.8600 49.0000
44.8800 51.0000
44.9000 45.0000
44.9200 49.0000
44.9400 29.0000
44.9600 33.0000
44.9800 33.0000
45.0000 27.0000
45.0200 30.0000
45.0400 39.0000
45.0600 27.0000
45.0800 27.0000
45.1000 33.0000
45.1200 30.0000
45.1400 33.0000
45.1600 22.0000
45.1800 29.0000
45.2000 33.0000
45.2200 27.0000
45.2400 26.0000
45.2600 34.0000
45.2800 31.0000
45.3000 29.0000
45.3200 26.0000
45.3400 19.0000
45.3600 26.0000
45.3800 23.0000
45.4000 28.0000
45.4200 34.0000
45.4400 32.0000
45.4600 35.0000
45.4800 27.0000
45.5000 36.0000
45.5200 31.0000
45.5400 16.0000
45.5600 23.0000
45.5800 31.0000
45.6000 30.0000
45.6200 27.0000
45.6400 29.0000
45.6600 32.0000
45.6800 24.0000
45.7000 27.0000
45.7200 29.0000
45.7400 26.0000
45.7600 16.0000
45.7800 26.0000
45.8000 29.0000
45.8200 32.0000
45.8400 20.0000
45.8600 21.0000
45.8800 27.0000
45.9000 27.0000
45.9200 24.0000
45.9400 38.0000
45.9600 27.0000
45.9800 23.0000
46.0000 28.0000
46.0200 24.0000
46.0400 36.0000
46.0600 24.0000
46.0800 22.0000
46.1000 21.0000
46.1200 32.0000
46.1400 19.0000
46.1600 29.0000
46.1800 33.0000
46.2000 32.0000
46.2200 22.0000
46.2400 34.0000
46.2600 34.0000
46.2800 31.0000
46.3000 41.0000
46.3200 22.0000
46.3400 29.0000
46.3600 29.0000
46.3800 32.0000
46.4000 43.0000
46.4200 38.0000
46.4400 21.0000
46.4600 29.0000
46.4800 24.0000
46.5000 24.0000
46.5200 27.0000
46.5400 25.0000
46.5600 40.0000
46.5800 26.0000
46.6000 34.0000
46.6200 29.0000
46.6400 30.0000
46.6600 25.0000
46.6800 34.0000
46.7000 27.0000
46.7200 31.0000
46.7400 32.0000
46.7600 25.0000
46.7800 36.0000
46.8000 30.0000
46.8200 39.0000
46.8400 26.0000
46.8600 24.0000
46.8800 29.0000
46.9000 30.0000
46.9200 23.0000
46.9400 28.0000
46.9600 22.0000
46.9800 21.0000
47.0000 31.0000
47.0200 27.0000
47.0400 31.0000
47.0600 19.0000
47.0800 26.0000
47.1000 30.0000
47.1200 28.0000
47.1400 31.0000
47.1600 26.0000
47.1800 33.0000
47.2000 35.0000
47.2200 28.0000
47.2400 28.0000
47.2600 32.0000
47.2800 22.0000
47.3000 32.0000
47.3200 22.0000
47.3400 26.0000
47.3600 23.0000
47.3800 37.0000
47.4000 30.0000
47.4200 28.0000
47.4400 32.0000
47.4600 31.0000
47.4800 40.0000
47.5000 28.0000
47.5200 40.0000
47.5400 30.0000
47.5600 40.0000
47.5800 34.0000
47.6000 39.0000
47.6200 29.0000
47.6400 27.0000
47.6600 30.0000
47.6800 31.0000
47.7000 29.0000
47.7200 36.0000
47.7400 46.0000
47.7600 40.0000
47.7800 33.0000
47.8000 27.0000
47.8200 24.0000
47.8400 30.0000
47.8600 23.0000
47.8800 33.0000
47.9000 32.0000
47.9200 24.0000
47.9400 25.0000
47.9600 23.0000
47.9800 33.0000
48.0000 28.0000
48.0200 28.0000
48.0400 28.0000
48.0600 23.0000
48.0800 20.0000
48.1000 27.0000
48.1200 20.0000
48.1400 28.0000
48.1600 21.0000
48.1800 31.0000
48.2000 29.0000
48.2200 27.0000
48.2400 30.0000
48.2600 30.0000
48.2800 30.0000
48.3000 20.0000
48.3200 24.0000
48.3400 25.0000
48.3600 30.0000
48.3800 23.0000
48.4000 33.0000
48.4200 28.0000
48.4400 31.0000
48.4600 28.0000
48.4800 18.0000
48.5000 30.0000
48.5200 20.0000
48.5400 25.0000
48.5600 24.0000
48.5800 25.0000
48.6000 25.0000
48.6200 27.0000
48.6400 21.0000
48.6600 29.0000
48.6800 26.0000
48.7000 38.0000
48.7200 38.0000
48.7400 26.0000
48.7600 19.0000
48.7800 29.0000
48.8000 26.0000
48.8200 24.0000
48.8400 25.0000
48.8600 23.0000
48.8800 30.0000
48.9000 25.0000
48.9200 30.0000
48.9400 26.0000
48.9600 20.0000
48.9800 28.0000
49.0000 25.0000
49.0200 38.0000
49.0400 29.0000
49.0600 25.0000
49.0800 41.0000
49.1000 29.0000
49.1200 25.0000
49.1400 29.0000
49.1600 22.0000
49.1800 26.0000
49.2000 32.0000
49.2200 28.0000
49.2400 23.0000
49.2600 27.0000
49.2800 22.0000
49.3000 31.0000
49.3200 20.0000
49.3400 28.0000
49.3600 31.0000
49.3800 27.0000
49.4000 24.0000
49.4200 22.0000
49.4400 25.0000
49.4600 30.0000
49.4800 25.0000
49.5000 29.0000
49.5200 24.0000
49.5400 30.0000
49.5600 27.0000
49.5800 41.0000
49.6000 27.0000
49.6200 26.0000
49.6400 25.0000
49.6600 27.0000
49.6800 37.0000
49.7000 31.0000
49.7200 31.0000
49.7400 26.0000
49.7600 17.0000
49.7800 32.0000
49.8000 30.0000
49.8200 27.0000
49.8400 27.0000
49.8600 24.0000
49.8800 20.0000
49.9000 28.0000
49.9200 25.0000
49.9400 28.0000
49.9600 28.0000
49.9800 27.0000
50.0000 18.0000
50.0200 29.0000
50.0400 33.0000
50.0600 27.0000
50.0800 23.0000
50.1000 26.0000
50.1200 23.0000
50.1400 29.0000
50.1600 21.0000
50.1800 23.0000
50.2000 29.0000
50.2200 20.0000
50.2400 34.0000
50.2600 20.0000
50.2800 24.0000
50.3000 22.0000
50.3200 24.0000
50.3400 28.0000
50.3600 19.0000
50.3800 19.0000
50.4000 32.0000
50.4200 34.0000
50.4400 27.0000
50.4600 30.0000
50.4800 23.0000
50.5000 22.0000
50.5200 23.0000
50.5400 20.0000
50.5600 26.0000
50.5800 28.0000
50.6000 25.0000
50.6200 24.0000
50.6400 23.0000
50.6600 23.0000
50.6800 19.0000
50.7000 30.0000
50.7200 17.0000
50.7400 20.0000
50.7600 31.0000
50.7800 14.0000
50.8000 26.0000
50.8200 31.0000
50.8400 27.0000
50.8600 29.0000
50.8800 19.0000
50.9000 21.0000
50.9200 24.0000
50.9400 21.0000
50.9600 25.0000
50.9800 36.0000
51.0000 25.0000
51.0200 19.0000
51.0400 29.0000
51.0600 22.0000
51.0800 30.0000
51.1000 22.0000
51.1200 27.0000
51.1400 36.0000
51.1600 35.0000
51.1800 22.0000
51.2000 27.0000
51.2200 33.0000
51.2400 25.0000
51.2600 32.0000
51.2800 27.0000
51.3000 25.0000
51.3200 26.0000
51.3400 27.0000
51.3600 19.0000
51.3800 23.0000
51.4000 23.0000
51.4200 25.0000
51.4400 21.0000
51.4600 29.0000
51.4800 31.0000
51.5000 34.0000
51.5200 25.0000
51.5400 26.0000
51.5600 31.0000
51.5800 32.0000
51.6000 28.0000
51.6200 25.0000
51.6400 23.0000
51.6600 29.0000
51.6800 31.0000
51.7000 30.0000
51.7200 19.0000
51.7400 19.0000
51.7600 27.0000
51.7800 19.0000
51.8000 28.0000
51.8200 24.0000
51.8400 18.0000
51.8600 23.0000
51.8800 21.0000
51.9000 26.0000
51.9200 29.0000
51.9400 28.0000
51.9600 28.0000
51.9800 25.0000
52.0000 36.0000
52.0200 26.0000
52.0400 37.0000
52.0600 30.0000
52.0800 30.0000
52.1000 26.0000
52.1200 32.0000
52.1400 27.0000
52.1600 28.0000
52.1800 24.0000
52.2000 33.0000
52.2200 23.0000
52.2400 36.0000
52.2600 32.0000
52.2800 30.0000
52.3000 30.0000
52.3200 29.0000
52.3400 27.0000
52.3600 19.0000
52.3800 25.0000
52.4000 26.0000
52.4200 30.0000
52.4400 22.0000
52.4600 27.0000
52.4800 24.0000
52.5000 25.0000
52.5200 25.0000
52.5400 18.0000
52.5600 24.0000
52.5800 21.0000
52.6000 19.0000
52.6200 25.0000
52.6400 24.0000
52.6600 38.0000
52.6800 22.0000
52.7000 31.0000
52.7200 28.0000
52.7400 28.0000
52.7600 38.0000
52.7800 28.0000
52.8000 24.0000
52.8200 28.0000
52.8400 16.0000
52.8600 24.0000
52.8800 30.0000
52.9000 30.0000
52.9200 24.0000
52.9400 23.0000
52.9600 28.0000
52.9800 28.0000
53.0000 32.0000
53.0200 22.0000
53.0400 23.0000
53.0600 24.0000
53.0800 23.0000
53.1000 30.0000
53.1200 17.0000
53.1400 31.0000
53.1600 28.0000
53.1800 24.0000
53.2000 20.0000
53.2200 21.0000
53.2400 31.0000
53.2600 30.0000
53.2800 21.0000
53.3000 28.0000
53.3200 23.0000
53.3400 19.0000
53.3600 30.0000
53.3800 24.0000
53.4000 23.0000
53.4200 29.0000
53.4400 23.0000
53.4600 31.0000
53.4800 26.0000
53.5000 24.0000
53.5200 25.0000
53.5400 21.0000
53.5600 27.0000
53.5800 16.0000
53.6000 25.0000
53.6200 23.0000
53.6400 15.0000
53.6600 26.0000
53.6800 31.0000
53.7000 30.0000
53.7200 22.0000
53.7400 36.0000
53.7600 24.0000
53.7800 32.0000
53.8000 31.0000
53.8200 24.0000
53.8400 30.0000
53.8600 35.0000
53.8800 22.0000
53.9000 18.0000
53.9200 27.0000
53.9400 24.0000
53.9600 28.0000
53.9800 33.0000
54.0000 31.0000
54.0200 27.0000
54.0400 27.0000
54.0600 25.0000
54.0800 26.0000
54.1000 18.0000
54.1200 34.0000
54.1400 14.0000
54.1600 26.0000
54.1800 20.0000
54.2000 21.0000
54.2200 27.0000
54.2400 30.0000
54.2600 30.0000
54.2800 21.0000
54.3000 24.0000
54.3200 13.0000
54.3400 25.0000
54.3600 24.0000
54.3800 18.0000
54.4000 23.0000
54.4200 14.0000
54.4400 24.0000
54.4600 22.0000
54.4800 34.0000
54.5000 26.0000
54.5200 21.0000
54.5400 24.0000
54.5600 35.0000
54.5800 25.0000
54.6000 22.0000
54.6200 27.0000
54.6400 27.0000
54.6600 26.0000
54.6800 20.0000
54.7000 29.0000
54.7200 9.0000
54.7400 24.0000
54.7600 28.0000
54.7800 27.0000
54.8000 31.0000
54.8200 15.0000
54.8400 29.0000
54.8600 29.0000
54.8800 25.0000
54.9000 22.0000
54.9200 33.0000
54.9400 31.0000
54.9600 29.0000
54.9800 31.0000
55.0000 21.0000
55.0200 26.0000
55.0400 25.0000
55.0600 23.0000
55.0800 24.0000
55.1000 32.0000
55.1200 25.0000
55.1400 24.0000
55.1600 23.0000
55.1800 25.0000
55.2000 33.0000
55.2200 22.0000
55.2400 24.0000
55.2600 35.0000
55.2800 32.0000
55.3000 19.0000
55.3200 30.0000
55.3400 34.0000
55.3600 33.0000
55.3800 38.0000
55.4000 25.0000
55.4200 25.0000
55.4400 26.0000
55.4600 18.0000
55.4800 34.0000
55.5000 49.0000
55.5200 22.0000
55.5400 22.0000
55.5600 31.0000
55.5800 22.0000
55.6000 23.0000
55.6200 25.0000
55.6400 26.0000
55.6600 26.0000
55.6800 23.0000
55.7000 24.0000
55.7200 30.0000
55.7400 18.0000
55.7600 23.0000
55.7800 20.0000
55.8000 19.0000
55.8200 15.0000
55.8400 25.0000
55.8600 17.0000
55.8800 28.0000
55.9000 19.0000
55.9200 21.0000
55.9400 40.0000
55.9600 21.0000
55.9800 23.0000
56.0000 25.0000
56.0200 27.0000
56.0400 28.0000
56.0600 30.0000
56.0800 31.0000
56.1000 30.0000
56.1200 32.0000
56.1400 34.0000
56.1600 21.0000
56.1800 26.0000
56.2000 24.0000
56.2200 23.0000
56.2400 28.0000
56.2600 24.0000
56.2800 30.0000
56.3000 23.0000
56.3200 22.0000
56.3400 22.0000
56.3600 19.0000
56.3800 37.0000
56.4000 25.0000
56.4200 39.0000
56.4400 26.0000
56.4600 28.0000
56.4800 33.0000
56.5000 26.0000
56.5200 37.0000
56.5400 29.0000
56.5600 34.0000
56.5800 23.0000
56.6000 30.0000
56.6200 39.0000
56.6400 35.0000
56.6600 31.0000
56.6800 28.0000
56.7000 21.0000
56.7200 37.0000
56.7400 35.0000
56.7600 30.0000
56.7800 34.0000
56.8000 30.0000
56.8200 32.0000
56.8400 17.0000
56.8600 35.0000
56.8800 19.0000
56.9000 24.0000
56.9200 26.0000
56.9400 19.0000
56.9600 33.0000
56.9800 20.0000
57.0000 32.0000
57.0200 16.0000
57.0400 21.0000
57.0600 31.0000
57.0800 28.0000
57.1000 35.0000
57.1200 32.0000
57.1400 23.0000
57.1600 28.0000
57.1800 28.0000
57.2000 30.0000
57.2200 17.0000
57.2400 23.0000
57.2600 30.0000
57.2800 23.0000
57.3000 30.0000
57.3200 27.0000
57.3400 29.0000
57.3600 27.0000
57.3800 25.0000
57.4000 32.0000
57.4200 23.0000
57.4400 35.0000
57.4600 35.0000
57.4800 27.0000
57.5000 21.0000
57.5200 15.0000
57.5400 32.0000
57.5600 24.0000
57.5800 39.0000
57.6000 21.0000
57.6200 28.0000
57.6400 30.0000
57.6600 23.0000
57.6800 22.0000
57.7000 21.0000
57.7200 33.0000
57.7400 26.0000
57.7600 29.0000
57.7800 29.0000
57.8000 29.0000
57.8200 17.0000
57.8400 31.0000
57.8600 27.0000
57.8800 18.0000
57.9000 17.0000
57.9200 26.0000
57.9400 27.0000
57.9600 23.0000
57.9800 32.0000
58.0000 27.0000
58.0200 27.0000
58.0400 21.0000
58.0600 25.0000
58.0800 29.0000
58.1000 28.0000
58.1200 21.0000
58.1400 23.0000
58.1600 26.0000
58.1800 19.0000
58.2000 12.0000
58.2200 32.0000
58.2400 26.0000
58.2600 25.0000
58.2800 20.0000
58.3000 21.0000
58.3200 26.0000
58.3400 24.0000
58.3600 19.0000
58.3800 24.0000
58.4000 24.0000
58.4200 15.0000
58.4400 22.0000
58.4600 29.0000
58.4800 17.0000
58.5000 19.0000
58.5200 26.0000
58.5400 23.0000
58.5600 36.0000
58.5800 23.0000
58.6000 32.0000
58.6200 24.0000
58.6400 24.0000
58.6600 21.0000
58.6800 26.0000
58.7000 26.0000
58.7200 25.0000
58.7400 23.0000
58.7600 16.0000
58.7800 25.0000
58.8000 19.0000
58.8200 27.0000
58.8400 25.0000
58.8600 41.0000
58.8800 31.0000
58.9000 28.0000
58.9200 20.0000
58.9400 29.0000
58.9600 24.0000
58.9800 24.0000
59.0000 25.0000
59.0200 23.0000
59.0400 23.0000
59.0600 19.0000
59.0800 21.0000
59.1000 24.0000
59.1200 33.0000
59.1400 27.0000
59.1600 16.0000
59.1800 16.0000
59.2000 23.0000
59.2200 33.0000
59.2400 28.0000
59.2600 19.0000
59.2800 21.0000
59.3000 23.0000
59.3200 28.0000
59.3400 24.0000
59.3600 21.0000
59.3800 24.0000
59.4000 30.0000
59.4200 20.0000
59.4400 20.0000
59.4600 19.0000
59.4800 31.0000
59.5000 28.0000
59.5200 37.0000
59.5400 20.0000
59.5600 28.0000
59.5800 33.0000
59.6000 19.0000
59.6200 32.0000
59.6400 30.0000
59.6600 21.0000
59.6800 30.0000
59.7000 19.0000
59.7200 23.0000
59.7400 19.0000
59.7600 30.0000
59.7800 27.0000
59.8000 23.0000
59.8200 22.0000
59.8400 29.0000
59.8600 36.0000
59.8800 16.0000
59.9000 14.0000
59.9200 19.0000
59.9400 22.0000
59.9600 32.0000
59.9800 28.0000
60.0000 23.0000
60.0200 25.0000
60.0400 23.0000
60.0600 23.0000
60.0800 25.0000
60.1000 27.0000
60.1200 27.0000
60.1400 26.0000
60.1600 23.0000
60.1800 18.0000
60.2000 23.0000
60.2200 25.0000
60.2400 27.0000
60.2600 32.0000
60.2800 21.0000
60.3000 16.0000
60.3200 28.0000
60.3400 21.0000
60.3600 19.0000
60.3800 23.0000
60.4000 15.0000
60.4200 26.0000
60.4400 24.0000
60.4600 25.0000
60.4800 25.0000
60.5000 32.0000
60.5200 22.0000
60.5400 25.0000
60.5600 21.0000
60.5800 29.0000
60.6000 26.0000
60.6200 21.0000
60.6400 31.0000
60.6600 27.0000
60.6800 22.0000
60.7000 15.0000
60.7200 27.0000
60.7400 22.0000
60.7600 33.0000
60.7800 29.0000
60.8000 31.0000
60.8200 24.0000
60.8400 28.0000
60.8600 25.0000
60.8800 30.0000
60.9000 22.0000
60.9200 31.0000
60.9400 19.0000
60.9600 19.0000
60.9800 26.0000
61.0000 17.0000
61.0200 16.0000
61.0400 22.0000
61.0600 26.0000
61.0800 23.0000
61.1000 24.0000
61.1200 32.0000
61.1400 27.0000
61.1600 23.0000
61.1800 39.0000
61.2000 24.0000
61.2200 27.0000
61.2400 36.0000
61.2600 24.0000
61.2800 25.0000
61.3000 29.0000
61.3200 27.0000
61.3400 20.0000
61.3600 25.0000
61.3800 29.0000
61.4000 23.0000
61.4200 28.0000
61.4400 28.0000
61.4600 24.0000
61.4800 19.0000
61.5000 29.0000
61.5200 30.0000
61.5400 34.0000
61.5600 26.0000
61.5800 20.0000
61.6000 20.0000
61.6200 18.0000
61.6400 30.0000
61.6600 20.0000
61.6800 36.0000
61.7000 27.0000
61.7200 25.0000
61.7400 24.0000
61.7600 36.0000
61.7800 20.0000
61.8000 40.0000
61.8200 33.0000
61.8400 29.0000
61.8600 29.0000
61.8800 31.0000
61.9000 22.0000
61.9200 20.0000
61.9400 21.0000
61.9600 26.0000
61.9800 36.0000
62.0000 22.0000
62.0200 38.0000
62.0400 31.0000
62.0600 34.0000
62.0800 25.0000
62.1000 30.0000
62.1200 39.0000
62.1400 30.0000
62.1600 30.0000
62.1800 26.0000
62.2000 31.0000
62.2200 21.0000
62.2400 27.0000
62.2600 26.0000
62.2800 32.0000
62.3000 36.0000
62.3200 30.0000
62.3400 24.0000
62.3600 31.0000
62.3800 30.0000
62.4000 27.0000
62.4200 34.0000
62.4400 29.0000
62.4600 25.0000
62.4800 35.0000
62.5000 34.0000
62.5200 28.0000
62.5400 30.0000
62.5600 34.0000
62.5800 25.0000
62.6000 41.0000
62.6200 38.0000
62.6400 39.0000
62.6600 30.0000
62.6800 32.0000
62.7000 30.0000
62.7200 25.0000
62.7400 30.0000
62.7600 30.0000
62.7800 22.0000
62.8000 32.0000
62.8200 32.0000
62.8400 24.0000
62.8600 40.0000
62.8800 27.0000
62.9000 23.0000
62.9200 36.0000
62.9400 31.0000
62.9600 24.0000
62.9800 34.0000
63.0000 30.0000
63.0200 46.0000
63.0400 34.0000
63.0600 23.0000
63.0800 32.0000
63.1000 37.0000
63.1200 34.0000
63.1400 22.0000
63.1600 35.0000
63.1800 28.0000
63.2000 27.0000
63.2200 26.0000
63.2400 39.0000
63.2600 26.0000
63.2800 23.0000
63.3000 23.0000
63.3200 28.0000
63.3400 32.0000
63.3600 19.0000
63.3800 23.0000
63.4000 30.0000
63.4200 38.0000
63.4400 25.0000
63.4600 24.0000
63.4800 27.0000
63.5000 26.0000
63.5200 28.0000
63.5400 32.0000
63.5600 28.0000
63.5800 30.0000
63.6000 25.0000
63.6200 22.0000
63.6400 29.0000
63.6600 22.0000
63.6800 26.0000
63.7000 25.0000
63.7200 21.0000
63.7400 20.0000
63.7600 36.0000
63.7800 25.0000
63.8000 26.0000
63.8200 26.0000
63.8400 22.0000
63.8600 28.0000
63.8800 24.0000
63.9000 23.0000
63.9200 32.0000
63.9400 15.0000
63.9600 24.0000
63.9800 24.0000
64.0000 30.0000
64.0200 33.0000
64.0400 29.0000
64.0600 23.0000
64.0800 30.0000
64.1000 22.0000
64.1200 32.0000
64.1400 34.0000
64.1600 23.0000
64.1800 43.0000
64.2000 19.0000
64.2200 23.0000
64.2400 23.0000
64.2600 26.0000
64.2800 20.0000
64.3000 23.0000
64.3200 27.0000
64.3400 24.0000
64.3600 39.0000
64.3800 20.0000
64.4000 27.0000
64.4200 17.0000
64.4400 30.0000
64.4600 30.0000
64.4800 21.0000
64.5000 36.0000
64.5200 16.0000
64.5400 30.0000
64.5600 41.0000
64.5800 35.0000
64.6000 35.0000
64.6200 26.0000
64.6400 27.0000
64.6600 26.0000
64.6800 30.0000
64.7000 24.0000
64.7200 24.0000
64.7400 36.0000
64.7600 29.0000
64.7800 30.0000
64.8000 39.0000
64.8200 27.0000
64.8400 29.0000
64.8600 29.0000
64.8800 30.0000
64.9000 32.0000
64.9200 25.0000
64.9400 26.0000
64.9600 26.0000
64.9800 20.0000
65.0000 22.0000
65.0200 27.0000
65.0400 36.0000
65.0600 26.0000
65.0800 32.0000
65.1000 24.0000
65.1200 27.0000
65.1400 39.0000
65.1600 27.0000
65.1800 24.0000
65.2000 26.0000
65.2200 28.0000
65.2400 24.0000
65.2600 40.0000
65.2800 28.0000
65.3000 20.0000
65.3200 32.0000
65.3400 25.0000
65.3600 37.0000
65.3800 26.0000
65.4000 33.0000
65.4200 29.0000
65.4400 29.0000
65.4600 30.0000
65.4800 37.0000
65.5000 32.0000
65.5200 25.0000
65.5400 17.0000
65.5600 23.0000
65.5800 32.0000
65.6000 30.0000
65.6200 24.0000
65.6400 36.0000
65.6600 20.0000
65.6800 18.0000
65.7000 30.0000
65.7200 29.0000
65.7400 20.0000
65.7600 22.0000
65.7800 22.0000
65.8000 25.0000
65.8200 32.0000
65.8400 36.0000
65.8600 33.0000
65.8800 31.0000
65.9000 25.0000
65.9200 25.0000
65.9400 26.0000
65.9600 28.0000
65.9800 25.0000
66.0000 38.0000
66.0200 40.0000
66.0400 47.0000
66.0600 22.0000
66.0800 35.0000
66.1000 26.0000
66.1200 27.0000
66.1400 32.0000
66.1600 28.0000
66.1800 24.0000
66.2000 32.0000
66.2200 29.0000
66.2400 25.0000
66.2600 41.0000
66.2800 27.0000
66.3000 34.0000
66.3200 22.0000
66.3400 37.0000
66.3600 29.0000
66.3800 26.0000
66.4000 41.0000
66.4200 34.0000
66.4400 29.0000
66.4600 28.0000
66.4800 34.0000
66.5000 27.0000
66.5200 29.0000
66.5400 33.0000
66.5600 36.0000
66.5800 28.0000
66.6000 41.0000
66.6200 34.0000
66.6400 27.0000
66.6600 22.0000
66.6800 25.0000
66.7000 31.0000
66.7200 33.0000
66.7400 33.0000
66.7600 27.0000
66.7800 31.0000
66.8000 37.0000
66.8200 35.0000
66.8400 21.0000
66.8600 31.0000
66.8800 22.0000
66.9000 33.0000
66.9200 30.0000
66.9400 25.0000
66.9600 32.0000
66.9800 38.0000
67.0000 26.0000
67.0200 16.0000
67.0400 32.0000
67.0600 32.0000
67.0800 30.0000
67.1000 26.0000
67.1200 36.0000
67.1400 33.0000
67.1600 41.0000
67.1800 37.0000
67.2000 29.0000
67.2200 27.0000
67.2400 47.0000
67.2600 27.0000
67.2800 25.0000
67.3000 38.0000
67.3200 24.0000
67.3400 27.0000
67.3600 32.0000
67.3800 49.0000
67.4000 39.0000
67.4200 38.0000
67.4400 38.0000
67.4600 37.0000
67.4800 31.0000
67.5000 41.0000
67.5200 35.0000
67.5400 42.0000
67.5600 36.0000
67.5800 41.0000
67.6000 51.0000
67.6200 62.0000
67.6400 53.0000
67.6600 51.0000
67.6800 62.0000
67.7000 71.0000
67.7200 69.0000
67.7400 65.0000
67.7600 82.0000
67.7800 85.0000
67.8000 82.0000
67.8200 76.0000
67.8400 108.0000
67.8600 98.0000
67.8800 77.0000
67.9000 104.0000
67.9200 104.0000
67.9400 108.0000
67.9600 111.0000
67.9800 105.0000
68.0000 102.0000
68.0200 121.0000
68.0400 92.0000
68.0600 103.0000
68.0800 105.0000
68.1000 96.0000
68.1200 104.0000
68.1400 97.0000
68.1600 117.0000
68.1800 110.0000
68.2000 103.0000
68.2200 95.0000
68.2400 84.0000
68.2600 96.0000
68.2800 75.0000
68.3000 69.0000
68.3200 60.0000
68.3400 65.0000
68.3600 71.0000
68.3800 58.0000
68.4000 55.0000
68.4200 60.0000
68.4400 50.0000
68.4600 48.0000
68.4800 57.0000
68.5000 45.0000
68.5200 51.0000
68.5400 40.0000
68.5600 46.0000
68.5800 44.0000
68.6000 40.0000
68.6200 41.0000
68.6400 26.0000
68.6600 37.0000
68.6800 45.0000
68.7000 35.0000
68.7200 34.0000
68.7400 39.0000
68.7600 38.0000
68.7800 35.0000
68.8000 39.0000
68.8200 39.0000
68.8400 52.0000
68.8600 30.0000
68.8800 44.0000
68.9000 39.0000
68.9200 53.0000
68.9400 45.0000
68.9600 39.0000
68.9800 39.0000
69.0000 32.0000
69.0200 45.0000
69.0400 45.0000
69.0600 46.0000
69.0800 49.0000
69.1000 56.0000
69.1200 50.0000
69.1400 46.0000
69.1600 51.0000
69.1800 37.0000
69.2000 41.0000
69.2200 58.0000
69.2400 55.0000
69.2600 47.0000
69.2800 58.0000
69.3000 40.0000
69.3200 42.0000
69.3400 44.0000
69.3600 43.0000
69.3800 49.0000
69.4000 55.0000
69.4200 32.0000
69.4400 45.0000
69.4600 34.0000
69.4800 44.0000
69.5000 37.0000
69.5200 46.0000
69.5400 44.0000
69.5600 34.0000
69.5800 39.0000
69.6000 37.0000
69.6200 52.0000
69.6400 37.0000
69.6600 44.0000
69.6800 45.0000
69.7000 37.0000
69.7200 37.0000
69.7400 27.0000
69.7600 32.0000
69.7800 40.0000
69.8000 37.0000
69.8200 31.0000
69.8400 32.0000
69.8600 36.0000
69.8800 40.0000
69.9000 31.0000
69.9200 42.0000
69.9400 40.0000
69.9600 40.0000
69.9800 38.0000
70.0000 55.0000
70.0200 47.0000
70.0400 36.0000
70.0600 41.0000
70.0800 43.0000
70.1000 39.0000
70.1200 38.0000
70.1400 48.0000
70.1600 35.0000
70.1800 34.0000
70.2000 44.0000
70.2200 37.0000
70.2400 45.0000
70.2600 63.0000
70.2800 46.0000
70.3000 42.0000
70.3200 45.0000
70.3400 48.0000
70.3600 52.0000
70.3800 43.0000
70.4000 56.0000
70.4200 37.0000
70.4400 38.0000
70.4600 37.0000
70.4800 41.0000
70.5000 45.0000
70.5200 37.0000
70.5400 53.0000
70.5600 55.0000
70.5800 47.0000
70.6000 48.0000
70.6200 55.0000
70.6400 46.0000
70.6600 59.0000
70.6800 52.0000
70.7000 62.0000
70.7200 47.0000
70.7400 58.0000
70.7600 55.0000
70.7800 70.0000
70.8000 61.0000
70.8200 59.0000
70.8400 59.0000
70.8600 49.0000
70.8800 63.0000
70.9000 65.0000
70.9200 83.0000
70.9400 73.0000
70.9600 71.0000
70.9800 65.0000
71.0000 68.0000
71.0200 84.0000
71.0400 79.0000
71.0600 101.0000
71.0800 84.0000
71.1000 78.0000
71.1200 93.0000
71.1400 105.0000
71.1600 93.0000
71.1800 95.0000
71.2000 95.0000
71.2200 103.0000
71.2400 117.0000
71.2600 130.0000
71.2800 116.0000
71.3000 118.0000
71.3200 107.0000
71.3400 139.0000
71.3600 140.0000
71.3800 141.0000
71.4000 142.0000
71.4200 136.0000
71.4400 157.0000
71.4600 155.0000
71.4800 156.0000
71.5000 143.0000
71.5200 171.0000
71.5400 188.0000
71.5600 194.0000
71.5800 181.0000
71.6000 185.0000
71.6200 173.0000
71.6400 185.0000
71.6600 205.0000
71.6800 199.0000
71.7000 168.0000
71.7200 206.0000
71.7400 204.0000
71.7600 242.0000
71.7800 232.0000
71.8000 217.0000
71.8200 234.0000
71.8400 245.0000
71.8600 254.0000
71.8800 267.0000
71.9000 264.0000
71.9200 247.0000
71.9400 296.0000
71.9600 292.0000
71.9800 299.0000
72.0000 351.0000
72.0200 372.0000
72.0400 363.0000
72.0600 392.0000
72.0800 439.0000
72.1000 462.0000
72.1200 457.0000
72.1400 492.0000
72.1600 496.0000
72.1800 576.0000
72.2000 613.0000
72.2200 642.0000
72.2400 701.0000
72.2600 691.0000
72.2800 784.0000
72.3000 835.0000
72.3200 838.0000
72.3400 886.0000
72.3600 933.0000
72.3800 981.0000
72.4000 981.0000
72.4200 1039.0000
72.4400 1088.0000
72.4600 1083.0000
72.4800 1138.0000
72.5000 1110.0000
72.5200 1187.0000
72.5400 1129.0000
72.5600 1125.0000
72.5800 1020.0000
72.6000 1071.0000
72.6200 1104.0000
72.6400 1011.0000
72.6600 947.0000
72.6800 959.0000
72.7000 948.0000
72.7200 921.0000
72.7400 906.0000
72.7600 828.0000
72.7800 799.0000
72.8000 749.0000
72.8200 695.0000
72.8400 665.0000
72.8600 629.0000
72.8800 537.0000
72.9000 515.0000
72.9200 453.0000
72.9400 445.0000
72.9600 379.0000
72.9800 344.0000
73.0000 329.0000
73.0200 304.0000
73.0400 289.0000
73.0600 269.0000
73.0800 249.0000
73.1000 233.0000
73.1200 243.0000
73.1400 210.0000
73.1600 212.0000
73.1800 174.0000
73.2000 192.0000
73.2200 163.0000
73.2400 136.0000
73.2600 150.0000
73.2800 162.0000
73.3000 139.0000
73.3200 124.0000
73.3400 113.0000
73.3600 131.0000
73.3800 112.0000
73.4000 93.0000
73.4200 116.0000
73.4400 92.0000
73.4600 84.0000
73.4800 114.0000
73.5000 87.0000
73.5200 80.0000
73.5400 105.0000
73.5600 71.0000
73.5800 73.0000
73.6000 93.0000
73.6200 83.0000
73.6400 58.0000
73.6600 83.0000
73.6800 82.0000
73.7000 73.0000
73.7200 76.0000
73.7400 72.0000
73.7600 76.0000
73.7800 71.0000
73.8000 57.0000
73.8200 51.0000
73.8400 78.0000
73.8600 74.0000
73.8800 56.0000
73.9000 59.0000
73.9200 50.0000
73.9400 65.0000
73.9600 61.0000
73.9800 63.0000
74.0000 71.0000
74.0200 59.0000
74.0400 67.0000
74.0600 56.0000
74.0800 66.0000
74.1000 51.0000
74.1200 68.0000
74.1400 51.0000
74.1600 57.0000
74.1800 54.0000
74.2000 42.0000
74.2200 47.0000
74.2400 35.0000
74.2600 64.0000
74.2800 46.0000
74.3000 40.0000
74.3200 50.0000
74.3400 55.0000
74.3600 48.0000
74.3800 46.0000
74.4000 37.0000
74.4200 50.0000
74.4400 50.0000
74.4600 52.0000
74.4800 55.0000
74.5000 50.0000
74.5200 49.0000
74.5400 47.0000
74.5600 49.0000
74.5800 50.0000
74.6000 31.0000
74.6200 48.0000
74.6400 39.0000
74.6600 55.0000
74.6800 43.0000
74.7000 39.0000
74.7200 37.0000
74.7400 43.0000
74.7600 41.0000
74.7800 46.0000
74.8000 49.0000
74.8200 39.0000
74.8400 50.0000
74.8600 66.0000
74.8800 44.0000
74.9000 41.0000
74.9200 46.0000
74.9400 41.0000
74.9600 37.0000
74.9800 47.0000
75.0000 38.0000
75.0200 31.0000
75.0400 36.0000
75.0600 38.0000
75.0800 39.0000
75.1000 35.0000
75.1200 36.0000
75.1400 32.0000
75.1600 19.0000
75.1800 36.0000
75.2000 40.0000
75.2200 41.0000
75.2400 34.0000
75.2600 42.0000
75.2800 33.0000
75.3000 35.0000
75.3200 37.0000
75.3400 30.0000
75.3600 37.0000
75.3800 43.0000
75.4000 22.0000
75.4200 39.0000
75.4400 46.0000
75.4600 39.0000
75.4800 32.0000
75.5000 50.0000
75.5200 36.0000
75.5400 46.0000
75.5600 28.0000
75.5800 27.0000
75.6000 40.0000
75.6200 37.0000
75.6400 31.0000
75.6600 28.0000
75.6800 40.0000
75.7000 34.0000
75.7200 29.0000
75.7400 46.0000
75.7600 39.0000
75.7800 35.0000
75.8000 32.0000
75.8200 29.0000
75.8400 33.0000
75.8600 46.0000
75.8800 43.0000
75.9000 41.0000
75.9200 34.0000
75.9400 22.0000
75.9600 38.0000
75.9800 36.0000
76.0000 48.0000
76.0200 25.0000
76.0400 23.0000
76.0600 38.0000
76.0800 26.0000
76.1000 30.0000
76.1200 27.0000
76.1400 41.0000
76.1600 27.0000
76.1800 25.0000
76.2000 33.0000
76.2200 23.0000
76.2400 37.0000
76.2600 39.0000
76.2800 33.0000
76.3000 30.0000
76.3200 35.0000
76.3400 45.0000
76.3600 40.0000
76.3800 37.0000
76.4000 44.0000
76.4200 39.0000
76.4400 35.0000
76.4600 41.0000
76.4800 35.0000
76.5000 34.0000
76.5200 40.0000
76.5400 38.0000
76.5600 49.0000
76.5800 57.0000
76.6000 31.0000
76.6200 42.0000
76.6400 40.0000
76.6600 37.0000
76.6800 49.0000
76.7000 47.0000
76.7200 44.0000
76.7400 49.0000
76.7600 45.0000
76.7800 52.0000
76.8000 54.0000
76.8200 37.0000
76.8400 54.0000
76.8600 66.0000
76.8800 44.0000
76.9000 48.0000
76.9200 50.0000
76.9400 72.0000
76.9600 49.0000
76.9800 61.0000
77.0000 60.0000
77.0200 63.0000
77.0400 46.0000
77.0600 50.0000
77.0800 55.0000
77.1000 50.0000
77.1200 63.0000
77.1400 53.0000
77.1600 52.0000
77.1800 58.0000
77.2000 55.0000
77.2200 69.0000
77.2400 42.0000
77.2600 51.0000
77.2800 42.0000
77.3000 54.0000
77.3200 44.0000
77.3400 45.0000
77.3600 35.0000
77.3800 61.0000
77.4000 45.0000
77.4200 34.0000
77.4400 41.0000
77.4600 30.0000
77.4800 30.0000
77.5000 37.0000
77.5200 28.0000
77.5400 37.0000
77.5600 32.0000
77.5800 35.0000
77.6000 34.0000
77.6200 23.0000
77.6400 23.0000
77.6600 34.0000
77.6800 37.0000
77.7000 24.0000
77.7200 30.0000
77.7400 29.0000
77.7600 31.0000
77.7800 33.0000
77.8000 32.0000
77.8200 17.0000
77.8400 28.0000
77.8600 27.0000
77.8800 28.0000
77.9000 30.0000
77.9200 34.0000
77.9400 19.0000
77.9600 22.0000
77.9800 28.0000
78.0000 24.0000
78.0200 33.0000
78.0400 31.0000
78.0600 34.0000
78.0800 32.0000
78.1000 23.0000
78.1200 29.0000
78.1400 29.0000
78.1600 36.0000
78.1800 38.0000
78.2000 24.0000
78.2200 32.0000
78.2400 22.0000
78.2600 21.0000
78.2800 29.0000
78.3000 29.0000
78.3200 26.0000
78.3400 26.0000
78.3600 29.0000
78.3800 31.0000
78.4000 26.0000
78.4200 25.0000
78.4400 29.0000
78.4600 40.0000
78.4800 20.0000
78.5000 29.0000
78.5200 28.0000
78.5400 23.0000
78.5600 22.0000
78.5800 17.0000
78.6000 29.0000
78.6200 26.0000
78.6400 29.0000
78.6600 30.0000
78.6800 36.0000
78.7000 21.0000
78.7200 32.0000
78.7400 28.0000
78.7600 32.0000
78.7800 27.0000
78.8000 17.0000
78.8200 17.0000
78.8400 32.0000
78.8600 29.0000
78.8800 21.0000
78.9000 23.0000
78.9200 27.0000
78.9400 20.0000
78.9600 32.0000
78.9800 26.0000
79.0000 19.0000
79.0200 24.0000
79.0400 16.0000
79.0600 31.0000
79.0800 23.0000
79.1000 21.0000
79.1200 26.0000
79.1400 25.0000
79.1600 30.0000
79.1800 29.0000
79.2000 35.0000
79.2200 20.0000
79.2400 39.0000
79.2600 26.0000
79.2800 36.0000
79.3000 22.0000
79.3200 28.0000
79.3400 22.0000
79.3600 19.0000
79.3800 27.0000
79.4000 28.0000
79.4200 22.0000
79.4400 33.0000
79.4600 27.0000
79.4800 25.0000
79.5000 26.0000
79.5200 17.0000
79.5400 25.0000
79.5600 24.0000
79.5800 20.0000
79.6000 28.0000
79.6200 27.0000
79.6400 19.0000
79.6600 29.0000
79.6800 28.0000
79.7000 22.0000
79.7200 24.0000
79.7400 35.0000
79.7600 29.0000
79.7800 22.0000
79.8000 25.0000
79.8200 25.0000
79.8400 25.0000
79.8600 15.0000
79.8800 21.0000
79.9000 24.0000
79.9200 18.0000
79.9400 35.0000
79.9600 31.0000
79.9800 38.0000
80.0000 29.0000
80.0200 38.0000
80.0400 30.0000
80.0600 24.0000
80.0800 25.0000
80.1000 26.0000
80.1200 23.0000
80.1400 28.0000
80.1600 31.0000
80.1800 23.0000
80.2000 18.0000
80.2200 23.0000
80.2400 23.0000
80.2600 29.0000
80.2800 31.0000
80.3000 27.0000
80.3200 21.0000
80.3400 26.0000
80.3600 23.0000
80.3800 25.0000
80.4000 19.0000
80.4200 22.0000
80.4400 24.0000
80.4600 21.0000
80.4800 33.0000
80.5000 23.0000
80.5200 31.0000
80.5400 20.0000
80.5600 29.0000
80.5800 24.0000
80.6000 26.0000
80.6200 16.0000
80.6400 36.0000
80.6600 24.0000
80.6800 26.0000
80.7000 32.0000
80.7200 29.0000
80.7400 20.0000
80.7600 35.0000
80.7800 20.0000
80.8000 23.0000
80.8200 33.0000
80.8400 25.0000
80.8600 29.0000
80.8800 34.0000
80.9000 27.0000
80.9200 27.0000
80.9400 35.0000
80.9600 18.0000
80.9800 20.0000
81.0000 13.0000
81.0200 27.0000
81.0400 33.0000
81.0600 30.0000
81.0800 20.0000
81.1000 23.0000
81.1200 23.0000
81.1400 44.0000
81.1600 26.0000
81.1800 20.0000
81.2000 31.0000
81.2200 29.0000
81.2400 23.0000
81.2600 29.0000
81.2800 26.0000
81.3000 23.0000
81.3200 24.0000
81.3400 27.0000
81.3600 18.0000
81.3800 26.0000
81.4000 20.0000
81.4200 26.0000
81.4400 23.0000
81.4600 25.0000
81.4800 25.0000
81.5000 28.0000
81.5200 31.0000
81.5400 28.0000
81.5600 26.0000
81.5800 27.0000
81.6000 28.0000
81.6200 24.0000
81.6400 26.0000
81.6600 21.0000
81.6800 27.0000
81.7000 26.0000
81.7200 25.0000
81.7400 31.0000
81.7600 28.0000
81.7800 26.0000
81.8000 31.0000
81.8200 32.0000
81.8400 26.0000
81.8600 35.0000
81.8800 26.0000
81.9000 40.0000
81.9200 41.0000
81.9400 41.0000
81.9600 36.0000
81.9800 40.0000
82.0000 23.0000
82.0200 24.0000
82.0400 22.0000
82.0600 34.0000
82.0800 34.0000
82.1000 30.0000
82.1200 37.0000
82.1400 27.0000
82.1600 33.0000
82.1800 33.0000
82.2000 24.0000
82.2200 34.0000
82.2400 27.0000
82.2600 37.0000
82.2800 25.0000
82.3000 37.0000
82.3200 40.0000
82.3400 24.0000
82.3600 27.0000
82.3800 35.0000
82.4000 27.0000
82.4200 28.0000
82.4400 32.0000
82.4600 29.0000
82.4800 23.0000
82.5000 25.0000
82.5200 31.0000
82.5400 28.0000
82.5600 24.0000
82.5800 31.0000
82.6000 21.0000
82.6200 22.0000
82.6400 21.0000
82.6600 19.0000
82.6800 29.0000
82.7000 22.0000
82.7200 29.0000
82.7400 24.0000
82.7600 20.0000
82.7800 31.0000
82.8000 36.0000
82.8200 19.0000
82.8400 25.0000
82.8600 25.0000
82.8800 21.0000
82.9000 23.0000
82.9200 26.0000
82.9400 30.0000
82.9600 34.0000
82.9800 27.0000
83.0000 39.0000
83.0200 28.0000
83.0400 30.0000
83.0600 22.0000
83.0800 23.0000
83.1000 35.0000
83.1200 32.0000
83.1400 31.0000
83.1600 30.0000
83.1800 23.0000
83.2000 10.0000
83.2200 23.0000
83.2400 23.0000
83.2600 29.0000
83.2800 30.0000
83.3000 22.0000
83.3200 23.0000
83.3400 22.0000
83.3600 27.0000
83.3800 31.0000
83.4000 21.0000
83.4200 19.0000
83.4400 30.0000
83.4600 28.0000
83.4800 27.0000
83.5000 13.0000
83.5200 19.0000
83.5400 21.0000
83.5600 23.0000
83.5800 32.0000
83.6000 32.0000
83.6200 26.0000
83.6400 16.0000
83.6600 20.0000
83.6800 31.0000
83.7000 24.0000
83.7200 20.0000
83.7400 31.0000
83.7600 25.0000
83.7800 25.0000
83.8000 24.0000
83.8200 29.0000
83.8400 20.0000
83.8600 20.0000
83.8800 18.0000
83.9000 28.0000
83.9200 32.0000
83.9400 26.0000
83.9600 25.0000
83.9800 37.0000
84.0000 17.0000
84.0200 15.0000
84.0400 31.0000
84.0600 20.0000
84.0800 30.0000
84.1000 21.0000
84.1200 20.0000
84.1400 27.0000
84.1600 23.0000
84.1800 25.0000
84.2000 20.0000
84.2200 27.0000
84.2400 30.0000
84.2600 15.0000
84.2800 23.0000
84.3000 25.0000
84.3200 26.0000
84.3400 25.0000
84.3600 14.0000
84.3800 24.0000
84.4000 35.0000
84.4200 28.0000
84.4400 27.0000
84.4600 25.0000
84.4800 25.0000
84.5000 26.0000
84.5200 18.0000
84.5400 27.0000
84.5600 31.0000
84.5800 27.0000
84.6000 18.0000
84.6200 27.0000
84.6400 25.0000
84.6600 31.0000
84.6800 26.0000
84.7000 22.0000
84.7200 28.0000
84.7400 22.0000
84.7600 23.0000
84.7800 32.0000
84.8000 34.0000
84.8200 16.0000
84.8400 21.0000
84.8600 37.0000
84.8800 36.0000
84.9000 21.0000
84.9200 21.0000
84.9400 26.0000
84.9600 22.0000
84.9800 30.0000
85.0000 28.0000
